[SUMMARY]
Software Information
Software Name:	UVProbe
Version:	2.43
Mode:	Normal Mode

Data Information
Data is:	Original
Analyst:	
Date/Time:	05/11/2021 12:04:25
Comments:	

Instrument Information
Instrument Name:	SolidSpec3700
Instrument Type:	SolidSpec-3700 Series
Model (S/N):	SolidSpec3700 ( A11085100264CZ )

[METHOD]
[Measurement Properties]
Wavelength Range (nm.):	300,00 to 2500,00
Scan Speed:	Medium
Sampling Interval:	2,0
Auto Sampling Interval:	Disabled
Scan Mode:	Single

[Sample Preparation Properties]
Weight:	
Volume:	
Dilution:	
Path Length:	
Additional Information:	

[Instrument Properties]
Instrument Type:	SolidSpec-3700 Series
Measuring Mode:	Transmittance
Slit Width:	8,0 nm
Time Constant:	1,0 sec.
Source Lamp:	Auto
Light Source Change Wavelength:	295,00 nm
Detector Unit:	Integral Sphere
Detector Change Wavelength:	900,00 nm  1650,00 nm
Grating Change Wavelength:	830,00 nm
S/R Exchange:	Normal
Detector Lock:	Auto
Slit Program:	Normal
Beam Mode:	Double
Stair Correction:	Disable

[Attachment Properties]
Attachment:	X-Y Stage
Sequence File:	Positions.xys

[Operation]
Threshold:	0,0010000
Points:	4
InterPolate:	Disabled
Average:	Disabled

[DATA]
Wavelength	Data
300.0	0.039
302.0	0.051
304.0	-0.005
306.0	-0.020
308.0	-0.061
310.0	0.037
312.0	0.048
314.0	0.077
316.0	0.074
318.0	0.108
320.0	0.081
322.0	0.042
324.0	0.087
326.0	0.118
328.0	0.120
330.0	0.114
332.0	0.142
334.0	0.180
336.0	0.217
338.0	0.277
340.0	0.356
342.0	0.469
344.0	0.604
346.0	0.777
348.0	0.956
350.0	1.153
352.0	1.350
354.0	1.569
356.0	1.802
358.0	2.059
360.0	2.341
362.0	2.626
364.0	2.907
366.0	3.167
368.0	3.428
370.0	3.683
372.0	3.933
374.0	4.173
376.0	4.413
378.0	4.659
380.0	4.922
382.0	5.175
384.0	5.424
386.0	5.660
388.0	5.899
390.0	6.133
392.0	6.364
394.0	6.594
396.0	6.825
398.0	7.049
400.0	7.276
402.0	7.503
404.0	7.735
406.0	7.955
408.0	8.170
410.0	8.371
412.0	8.580
414.0	8.772
416.0	8.980
418.0	9.187
420.0	9.392
422.0	9.580
424.0	9.747
426.0	9.927
428.0	10.101
430.0	10.273
432.0	10.436
434.0	10.593
436.0	10.754
438.0	10.905
440.0	11.044
442.0	11.174
444.0	11.300
446.0	11.420
448.0	11.535
450.0	11.642
452.0	11.753
454.0	11.858
456.0	11.949
458.0	12.025
460.0	12.089
462.0	12.154
464.0	12.214
466.0	12.263
468.0	12.291
470.0	12.318
472.0	12.354
474.0	12.390
476.0	12.413
478.0	12.421
480.0	12.421
482.0	12.432
484.0	12.422
486.0	12.402
488.0	12.348
490.0	12.297
492.0	12.256
494.0	12.211
496.0	12.175
498.0	12.099
500.0	12.019
502.0	11.924
504.0	11.843
506.0	11.769
508.0	11.680
510.0	11.572
512.0	11.446
514.0	11.337
516.0	11.238
518.0	11.148
520.0	11.035
522.0	10.905
524.0	10.758
526.0	10.613
528.0	10.498
530.0	10.387
532.0	10.263
534.0	10.117
536.0	9.967
538.0	9.833
540.0	9.713
542.0	9.615
544.0	9.507
546.0	9.389
548.0	9.251
550.0	9.118
552.0	8.988
554.0	8.875
556.0	8.773
558.0	8.684
560.0	8.583
562.0	8.471
564.0	8.359
566.0	8.248
568.0	8.147
570.0	8.051
572.0	7.971
574.0	7.886
576.0	7.799
578.0	7.705
580.0	7.619
582.0	7.524
584.0	7.425
586.0	7.340
588.0	7.263
590.0	7.199
592.0	7.130
594.0	7.068
596.0	6.990
598.0	6.907
600.0	6.809
602.0	6.727
604.0	6.655
606.0	6.609
608.0	6.568
610.0	6.527
612.0	6.467
614.0	6.388
616.0	6.300
618.0	6.211
620.0	6.143
622.0	6.094
624.0	6.058
626.0	6.027
628.0	5.991
630.0	5.943
632.0	5.878
634.0	5.793
636.0	5.712
638.0	5.636
640.0	5.588
642.0	5.558
644.0	5.542
646.0	5.527
648.0	5.496
650.0	5.447
652.0	5.369
654.0	5.276
656.0	5.189
658.0	5.128
660.0	5.099
662.0	5.088
664.0	5.090
666.0	5.089
668.0	5.082
670.0	5.045
672.0	4.978
674.0	4.891
676.0	4.805
678.0	4.738
680.0	4.690
682.0	4.678
684.0	4.679
686.0	4.690
688.0	4.681
690.0	4.658
692.0	4.618
694.0	4.553
696.0	4.469
698.0	4.387
700.0	4.323
702.0	4.302
704.0	4.293
706.0	4.301
708.0	4.307
710.0	4.312
712.0	4.301
714.0	4.273
716.0	4.225
718.0	4.160
720.0	4.085
722.0	4.020
724.0	3.982
726.0	3.969
728.0	3.970
730.0	3.971
732.0	3.971
734.0	3.961
736.0	3.953
738.0	3.932
740.0	3.893
742.0	3.840
744.0	3.774
746.0	3.726
748.0	3.679
750.0	3.654
752.0	3.636
754.0	3.636
756.0	3.656
758.0	3.663
760.0	3.669
762.0	3.644
764.0	3.619
766.0	3.573
768.0	3.533
770.0	3.487
772.0	3.451
774.0	3.420
776.0	3.386
778.0	3.372
780.0	3.361
782.0	3.376
784.0	3.376
786.0	3.374
788.0	3.359
790.0	3.342
792.0	3.326
794.0	3.293
796.0	3.259
798.0	3.218
800.0	3.198
802.0	3.178
804.0	3.147
806.0	3.131
808.0	3.112
810.0	3.115
812.0	3.098
814.0	3.106
816.0	3.101
818.0	3.088
820.0	3.059
822.0	3.028
824.0	3.011
826.0	2.990
828.0	2.971
830.0	2.940
832.0	2.906
834.0	2.877
836.0	2.864
838.0	2.861
840.0	2.865
842.0	2.878
844.0	2.906
846.0	2.920
848.0	2.917
850.0	2.906
852.0	2.900
854.0	2.873
856.0	2.835
858.0	2.775
860.0	2.728
862.0	2.690
864.0	2.671
866.0	2.661
868.0	2.635
870.0	2.620
872.0	2.625
874.0	2.641
876.0	2.647
878.0	2.684
880.0	2.687
882.0	2.697
884.0	2.642
886.0	2.673
888.0	2.648
890.0	2.630
892.0	2.564
894.0	2.560
896.0	2.546
898.0	2.514
900.0	2.465
902.0	2.476
904.0	2.467
906.0	2.461
908.0	2.422
910.0	2.402
912.0	2.421
914.0	2.448
916.0	2.470
918.0	2.460
920.0	2.456
922.0	2.444
924.0	2.425
926.0	2.385
928.0	2.366
930.0	2.350
932.0	2.338
934.0	2.310
936.0	2.289
938.0	2.264
940.0	2.251
942.0	2.248
944.0	2.257
946.0	2.259
948.0	2.231
950.0	2.230
952.0	2.251
954.0	2.271
956.0	2.284
958.0	2.294
960.0	2.302
962.0	2.290
964.0	2.264
966.0	2.253
968.0	2.229
970.0	2.193
972.0	2.164
974.0	2.132
976.0	2.115
978.0	2.095
980.0	2.080
982.0	2.066
984.0	2.060
986.0	2.060
988.0	2.072
990.0	2.077
992.0	2.089
994.0	2.081
996.0	2.092
998.0	2.093
1000.0	2.104
1002.0	2.111
1004.0	2.115
1006.0	2.113
1008.0	2.085
1010.0	2.057
1012.0	2.045
1014.0	2.026
1016.0	2.006
1018.0	1.971
1020.0	1.957
1022.0	1.930
1024.0	1.913
1026.0	1.894
1028.0	1.896
1030.0	1.899
1032.0	1.894
1034.0	1.899
1036.0	1.897
1038.0	1.899
1040.0	1.894
1042.0	1.896
1044.0	1.914
1046.0	1.926
1048.0	1.944
1050.0	1.937
1052.0	1.935
1054.0	1.924
1056.0	1.921
1058.0	1.909
1060.0	1.898
1062.0	1.885
1064.0	1.869
1066.0	1.848
1068.0	1.820
1070.0	1.804
1072.0	1.786
1074.0	1.765
1076.0	1.747
1078.0	1.731
1080.0	1.724
1082.0	1.714
1084.0	1.714
1086.0	1.716
1088.0	1.725
1090.0	1.726
1092.0	1.734
1094.0	1.740
1096.0	1.747
1098.0	1.755
1100.0	1.749
1102.0	1.758
1104.0	1.754
1106.0	1.745
1108.0	1.723
1110.0	1.703
1112.0	1.683
1114.0	1.651
1116.0	1.610
1118.0	1.563
1120.0	1.519
1122.0	1.466
1124.0	1.410
1126.0	1.351
1128.0	1.303
1130.0	1.259
1132.0	1.229
1134.0	1.219
1136.0	1.228
1138.0	1.252
1140.0	1.277
1142.0	1.308
1144.0	1.344
1146.0	1.376
1148.0	1.415
1150.0	1.438
1152.0	1.458
1154.0	1.474
1156.0	1.491
1158.0	1.509
1160.0	1.518
1162.0	1.523
1164.0	1.519
1166.0	1.511
1168.0	1.502
1170.0	1.496
1172.0	1.483
1174.0	1.467
1176.0	1.448
1178.0	1.429
1180.0	1.413
1182.0	1.393
1184.0	1.375
1186.0	1.355
1188.0	1.341
1190.0	1.340
1192.0	1.342
1194.0	1.351
1196.0	1.359
1198.0	1.367
1200.0	1.373
1202.0	1.380
1204.0	1.386
1206.0	1.392
1208.0	1.389
1210.0	1.390
1212.0	1.390
1214.0	1.398
1216.0	1.408
1218.0	1.421
1220.0	1.429
1222.0	1.435
1224.0	1.436
1226.0	1.443
1228.0	1.445
1230.0	1.446
1232.0	1.443
1234.0	1.439
1236.0	1.431
1238.0	1.419
1240.0	1.408
1242.0	1.401
1244.0	1.391
1246.0	1.379
1248.0	1.369
1250.0	1.362
1252.0	1.353
1254.0	1.346
1256.0	1.335
1258.0	1.326
1260.0	1.318
1262.0	1.306
1264.0	1.301
1266.0	1.289
1268.0	1.278
1270.0	1.274
1272.0	1.271
1274.0	1.271
1276.0	1.262
1278.0	1.260
1280.0	1.265
1282.0	1.265
1284.0	1.265
1286.0	1.263
1288.0	1.271
1290.0	1.271
1292.0	1.277
1294.0	1.282
1296.0	1.287
1298.0	1.291
1300.0	1.292
1302.0	1.297
1304.0	1.298
1306.0	1.293
1308.0	1.286
1310.0	1.278
1312.0	1.268
1314.0	1.256
1316.0	1.245
1318.0	1.240
1320.0	1.230
1322.0	1.215
1324.0	1.206
1326.0	1.201
1328.0	1.192
1330.0	1.178
1332.0	1.168
1334.0	1.164
1336.0	1.156
1338.0	1.148
1340.0	1.132
1342.0	1.125
1344.0	1.111
1346.0	1.102
1348.0	1.092
1350.0	1.082
1352.0	1.073
1354.0	1.061
1356.0	1.046
1358.0	1.027
1360.0	1.012
1362.0	1.011
1364.0	1.017
1366.0	1.017
1368.0	1.014
1370.0	1.003
1372.0	1.001
1374.0	1.000
1376.0	1.002
1378.0	1.007
1380.0	1.006
1382.0	1.010
1384.0	1.008
1386.0	1.010
1388.0	1.009
1390.0	1.006
1392.0	0.993
1394.0	0.985
1396.0	0.977
1398.0	0.975
1400.0	0.960
1402.0	0.952
1404.0	0.947
1406.0	0.940
1408.0	0.934
1410.0	0.929
1412.0	0.937
1414.0	0.951
1416.0	0.959
1418.0	0.961
1420.0	0.952
1422.0	0.948
1424.0	0.941
1426.0	0.932
1428.0	0.936
1430.0	0.946
1432.0	0.952
1434.0	0.949
1436.0	0.946
1438.0	0.952
1440.0	0.955
1442.0	0.955
1444.0	0.954
1446.0	0.943
1448.0	0.939
1450.0	0.934
1452.0	0.947
1454.0	0.943
1456.0	0.932
1458.0	0.921
1460.0	0.922
1462.0	0.928
1464.0	0.938
1466.0	0.938
1468.0	0.941
1470.0	0.934
1472.0	0.932
1474.0	0.936
1476.0	0.934
1478.0	0.944
1480.0	0.939
1482.0	0.951
1484.0	0.942
1486.0	0.957
1488.0	0.959
1490.0	0.965
1492.0	0.959
1494.0	0.956
1496.0	0.962
1498.0	0.959
1500.0	0.957
1502.0	0.952
1504.0	0.948
1506.0	0.941
1508.0	0.932
1510.0	0.927
1512.0	0.924
1514.0	0.920
1516.0	0.918
1518.0	0.917
1520.0	0.914
1522.0	0.920
1524.0	0.917
1526.0	0.918
1528.0	0.893
1530.0	0.887
1532.0	0.898
1534.0	0.913
1536.0	0.917
1538.0	0.902
1540.0	0.901
1542.0	0.894
1544.0	0.891
1546.0	0.899
1548.0	0.899
1550.0	0.909
1552.0	0.894
1554.0	0.902
1556.0	0.898
1558.0	0.894
1560.0	0.881
1562.0	0.879
1564.0	0.879
1566.0	0.884
1568.0	0.871
1570.0	0.866
1572.0	0.855
1574.0	0.855
1576.0	0.854
1578.0	0.862
1580.0	0.855
1582.0	0.842
1584.0	0.842
1586.0	0.845
1588.0	0.852
1590.0	0.838
1592.0	0.830
1594.0	0.839
1596.0	0.837
1598.0	0.830
1600.0	0.811
1602.0	0.802
1604.0	0.807
1606.0	0.795
1608.0	0.782
1610.0	0.754
1612.0	0.744
1614.0	0.717
1616.0	0.695
1618.0	0.661
1620.0	0.652
1622.0	0.634
1624.0	0.621
1626.0	0.596
1628.0	0.584
1630.0	0.590
1632.0	0.566
1634.0	0.564
1636.0	0.523
1638.0	0.495
1640.0	0.442
1642.0	0.407
1644.0	0.377
1646.0	0.332
1648.0	0.290
1650.0	0.152
1652.0	0.093
1654.0	0.080
1656.0	0.169
1658.0	0.145
1660.0	0.170
1662.0	0.126
1664.0	0.096
1666.0	-0.045
1668.0	0.096
1670.0	0.205
1672.0	0.402
1674.0	0.297
1676.0	0.179
1678.0	0.104
1680.0	0.106
1682.0	0.082
1684.0	0.043
1686.0	0.053
1688.0	0.104
1690.0	0.114
1692.0	0.255
1694.0	0.471
1696.0	0.532
1698.0	0.360
1700.0	0.181
1702.0	0.171
1704.0	0.244
1706.0	0.437
1708.0	0.516
1710.0	0.480
1712.0	0.339
1714.0	0.442
1716.0	0.477
1718.0	0.489
1720.0	0.444
1722.0	0.521
1724.0	0.348
1726.0	0.117
1728.0	0.188
1730.0	0.387
1732.0	0.483
1734.0	0.493
1736.0	0.523
1738.0	0.717
1740.0	0.549
1742.0	0.632
1744.0	0.561
1746.0	0.727
1748.0	0.667
1750.0	0.498
1752.0	0.420
1754.0	0.600
1756.0	0.669
1758.0	0.751
1760.0	0.589
1762.0	0.489
1764.0	0.417
1766.0	0.375
1768.0	0.631
1770.0	0.742
1772.0	0.837
1774.0	0.765
1776.0	0.883
1778.0	0.914
1780.0	0.911
1782.0	0.622
1784.0	0.428
1786.0	0.301
1788.0	0.327
1790.0	0.359
1792.0	0.552
1794.0	0.687
1796.0	0.671
1798.0	0.446
1800.0	0.523
1802.0	0.631
1804.0	0.733
1806.0	0.517
1808.0	0.528
1810.0	0.729
1812.0	0.586
1814.0	0.447
1816.0	0.274
1818.0	0.418
1820.0	0.696
1822.0	0.518
1824.0	0.462
1826.0	0.339
1828.0	0.585
1830.0	0.670
1832.0	1.035
1834.0	0.841
1836.0	1.195
1838.0	0.806
1840.0	0.960
1842.0	0.687
1844.0	0.737
1846.0	0.623
1848.0	0.517
1850.0	0.372
1852.0	0.333
1854.0	0.467
1856.0	0.289
1858.0	0.336
1860.0	0.342
1862.0	0.565
1864.0	0.341
1866.0	0.283
1868.0	0.395
1870.0	0.586
1872.0	0.420
1874.0	0.156
1876.0	0.467
1878.0	0.416
1880.0	0.745
1882.0	0.803
1884.0	1.164
1886.0	0.995
1888.0	0.739
1890.0	0.565
1892.0	0.785
1894.0	0.889
1896.0	1.005
1898.0	0.726
1900.0	0.313
1902.0	0.149
1904.0	0.272
1906.0	0.441
1908.0	0.563
1910.0	-0.022
1912.0	-0.012
1914.0	-0.107
1916.0	0.038
1918.0	0.329
1920.0	0.116
1922.0	0.296
1924.0	0.247
1926.0	0.438
1928.0	0.715
1930.0	0.420
1932.0	0.398
1934.0	0.358
1936.0	0.571
1938.0	0.403
1940.0	0.207
1942.0	0.053
1944.0	-0.070
1946.0	0.245
1948.0	0.148
1950.0	0.423
1952.0	0.750
1954.0	1.072
1956.0	1.181
1958.0	0.769
1960.0	0.540
1962.0	0.685
1964.0	0.492
1966.0	0.703
1968.0	0.466
1970.0	0.835
1972.0	0.668
1974.0	0.692
1976.0	0.850
1978.0	0.635
1980.0	0.519
1982.0	0.188
1984.0	-0.085
1986.0	0.429
1988.0	0.417
1990.0	1.276
1992.0	1.028
1994.0	1.137
1996.0	0.694
1998.0	0.467
2000.0	0.475
2002.0	0.643
2004.0	0.652
2006.0	0.515
2008.0	0.234
2010.0	0.324
2012.0	0.043
2014.0	0.131
2016.0	0.023
2018.0	0.446
2020.0	0.770
2022.0	1.109
2024.0	1.300
2026.0	1.070
2028.0	0.120
2030.0	-0.053
2032.0	-0.434
2034.0	0.368
2036.0	0.261
2038.0	0.378
2040.0	-0.037
2042.0	-0.008
2044.0	0.288
2046.0	0.549
2048.0	0.205
2050.0	0.233
2052.0	0.866
2054.0	1.010
2056.0	0.869
2058.0	0.613
2060.0	0.459
2062.0	1.064
2064.0	0.547
2066.0	0.726
2068.0	0.480
2070.0	0.576
2072.0	0.512
2074.0	0.670
2076.0	0.230
2078.0	-0.166
2080.0	-0.797
2082.0	-0.238
2084.0	0.032
2086.0	0.178
2088.0	-0.395
2090.0	-0.466
2092.0	-0.945
2094.0	-0.540
2096.0	-0.534
2098.0	0.227
2100.0	0.095
2102.0	0.125
2104.0	-0.079
2106.0	0.684
2108.0	1.159
2110.0	0.836
2112.0	0.265
2114.0	0.175
2116.0	0.886
2118.0	1.005
2120.0	0.832
2122.0	0.825
2124.0	0.376
2126.0	-0.029
2128.0	-1.038
2130.0	-0.874
2132.0	-0.367
2134.0	-0.150
2136.0	-0.198
2138.0	-0.830
2140.0	-0.926
2142.0	-0.380
2144.0	0.254
2146.0	0.713
2148.0	0.339
2150.0	0.185
2152.0	0.336
2154.0	-0.192
2156.0	-0.395
2158.0	-1.096
2160.0	-0.937
2162.0	-0.414
2164.0	-0.346
2166.0	0.182
2168.0	0.044
2170.0	0.410
2172.0	-0.310
2174.0	-0.082
2176.0	-0.127
2178.0	-0.067
2180.0	-1.141
2182.0	-1.520
2184.0	-1.578
2186.0	-0.933
2188.0	-0.255
2190.0	0.288
2192.0	-0.227
2194.0	-0.851
2196.0	-1.125
2198.0	-0.797
2200.0	-0.421
2202.0	-0.110
2204.0	0.331
2206.0	0.082
2208.0	0.463
2210.0	0.065
2212.0	-0.024
2214.0	-0.852
2216.0	-0.223
2218.0	0.419
2220.0	1.283
2222.0	0.761
2224.0	0.074
2226.0	0.665
2228.0	0.617
2230.0	0.839
2232.0	-1.161
2234.0	-1.420
2236.0	-1.403
2238.0	-0.989
2240.0	-0.466
2242.0	-0.968
2244.0	0.089
2246.0	0.099
2248.0	1.104
2250.0	1.127
2252.0	0.441
2254.0	0.236
2256.0	-0.808
2258.0	-1.083
2260.0	-2.211
2262.0	-1.818
2264.0	-0.989
2266.0	0.018
2268.0	0.138
2270.0	-0.593
2272.0	-0.845
2274.0	-1.039
2276.0	-0.978
2278.0	-0.573
2280.0	-1.135
2282.0	-0.400
2284.0	-1.124
2286.0	-0.511
2288.0	-0.767
2290.0	-0.139
2292.0	0.439
2294.0	0.305
2296.0	-0.080
2298.0	-0.882
2300.0	-1.002
2302.0	-1.135
2304.0	-0.526
2306.0	-0.764
2308.0	-1.141
2310.0	-1.264
2312.0	-0.655
2314.0	0.492
2316.0	1.218
2318.0	0.332
2320.0	-0.458
2322.0	-1.165
2324.0	0.075
2326.0	-0.342
2328.0	-0.224
2330.0	0.316
2332.0	0.950
2334.0	0.406
2336.0	-1.284
2338.0	-1.804
2340.0	-2.575
2342.0	-2.859
2344.0	-1.675
2346.0	0.062
2348.0	0.761
2350.0	1.153
2352.0	0.452
2354.0	1.712
2356.0	0.368
2358.0	0.603
2360.0	-0.777
2362.0	0.800
2364.0	0.684
2366.0	0.993
2368.0	-0.509
2370.0	0.498
2372.0	-0.590
2374.0	0.059
2376.0	-1.652
2378.0	-0.637
2380.0	-0.857
2382.0	0.186
2384.0	-1.136
2386.0	-3.505
2388.0	-5.683
2390.0	-5.214
2392.0	-4.190
2394.0	-2.789
2396.0	-1.614
2398.0	-1.509
2400.0	-2.056
2402.0	-2.188
2404.0	-1.651
2406.0	-1.054
2408.0	-1.070
2410.0	-1.189
2412.0	-2.054
2414.0	-1.303
2416.0	-0.537
2418.0	-0.527
2420.0	-1.644
2422.0	-2.570
2424.0	-1.636
2426.0	-1.798
2428.0	-1.067
2430.0	-0.230
2432.0	2.114
2434.0	1.360
2436.0	-1.453
2438.0	-5.854
2440.0	-3.754
2442.0	-1.418
2444.0	1.211
2446.0	-1.506
2448.0	-1.364
2450.0	-2.671
2452.0	-1.299
2454.0	-0.395
2456.0	-0.530
2458.0	-0.692
2460.0	-1.213
2462.0	-0.272
2464.0	-0.414
2466.0	-2.711
2468.0	-4.275
2470.0	-4.893
2472.0	-4.852
2474.0	-1.267
2476.0	1.681
2478.0	2.564
2480.0	0.440
2482.0	-3.118
2484.0	-3.354
2486.0	-3.719
2488.0	-2.124
2490.0	-1.378
2492.0	1.005
2494.0	2.110
2496.0	2.369
2498.0	0.755
2500.0	-0.329
