[SUMMARY]
Software Information
Software Name:	UVProbe
Version:	2.43
Mode:	Normal Mode

Data Information
Data is:	Original
Analyst:	
Date/Time:	05/11/2021 13:00:58
Comments:	

Instrument Information
Instrument Name:	SolidSpec3700
Instrument Type:	SolidSpec-3700 Series
Model (S/N):	SolidSpec3700 ( A11085100264CZ )

[METHOD]
[Measurement Properties]
Wavelength Range (nm.):	230,00 to 2500,00
Scan Speed:	Medium
Sampling Interval:	2,0
Auto Sampling Interval:	Disabled
Scan Mode:	Single

[Sample Preparation Properties]
Weight:	
Volume:	
Dilution:	
Path Length:	
Additional Information:	

[Instrument Properties]
Instrument Type:	SolidSpec-3700 Series
Measuring Mode:	Reflectance
Slit Width:	8,0 nm
Time Constant:	1,0 sec.
Source Lamp:	Auto
Light Source Change Wavelength:	295,00 nm
Detector Unit:	Integral Sphere
Detector Change Wavelength:	900,00 nm  1650,00 nm
Grating Change Wavelength:	830,00 nm
S/R Exchange:	Inverse
Detector Lock:	Auto
Slit Program:	Normal
Beam Mode:	Double
Stair Correction:	Disable

[Attachment Properties]
Attachment:	X-Y Stage
Sequence File:	Positions.xys

[Operation]
Threshold:	0,0010000
Points:	4
InterPolate:	Disabled
Average:	Disabled

[DATA]
Wavelength	Data
230.0	7.129
232.0	7.201
234.0	7.232
236.0	7.115
238.0	6.934
240.0	6.736
242.0	6.563
244.0	6.382
246.0	6.189
248.0	6.015
250.0	5.827
252.0	5.676
254.0	5.512
256.0	5.386
258.0	5.268
260.0	5.168
262.0	5.083
264.0	5.010
266.0	4.933
268.0	4.879
270.0	4.802
272.0	4.759
274.0	4.687
276.0	4.646
278.0	4.607
280.0	4.582
282.0	4.568
284.0	4.547
286.0	4.556
288.0	4.576
290.0	4.587
292.0	4.590
294.0	4.709
296.0	4.703
298.0	5.210
300.0	5.311
302.0	5.561
304.0	5.367
306.0	5.380
308.0	5.468
310.0	5.849
312.0	5.911
314.0	6.296
316.0	5.708
318.0	6.141
320.0	5.993
322.0	6.396
324.0	6.147
326.0	6.410
328.0	6.816
330.0	7.209
332.0	7.317
334.0	7.326
336.0	7.445
338.0	7.565
340.0	7.732
342.0	7.843
344.0	7.897
346.0	7.959
348.0	8.020
350.0	8.080
352.0	8.070
354.0	8.096
356.0	8.082
358.0	8.112
360.0	8.083
362.0	8.090
364.0	8.097
366.0	8.100
368.0	8.116
370.0	8.116
372.0	8.120
374.0	8.130
376.0	8.135
378.0	8.149
380.0	8.171
382.0	8.192
384.0	8.208
386.0	8.204
388.0	8.222
390.0	8.239
392.0	8.265
394.0	8.286
396.0	8.312
398.0	8.336
400.0	8.367
402.0	8.390
404.0	8.405
406.0	8.409
408.0	8.407
410.0	8.409
412.0	8.399
414.0	8.403
416.0	8.403
418.0	8.414
420.0	8.415
422.0	8.418
424.0	8.406
426.0	8.399
428.0	8.381
430.0	8.373
432.0	8.352
434.0	8.348
436.0	8.340
438.0	8.343
440.0	8.329
442.0	8.321
444.0	8.314
446.0	8.302
448.0	8.292
450.0	8.279
452.0	8.279
454.0	8.266
456.0	8.256
458.0	8.236
460.0	8.228
462.0	8.218
464.0	8.212
466.0	8.194
468.0	8.184
470.0	8.172
472.0	8.166
474.0	8.162
476.0	8.170
478.0	8.175
480.0	8.174
482.0	8.169
484.0	8.162
486.0	8.162
488.0	8.154
490.0	8.156
492.0	8.148
494.0	8.150
496.0	8.134
498.0	8.125
500.0	8.124
502.0	8.124
504.0	8.123
506.0	8.111
508.0	8.112
510.0	8.105
512.0	8.103
514.0	8.092
516.0	8.091
518.0	8.090
520.0	8.090
522.0	8.083
524.0	8.073
526.0	8.078
528.0	8.071
530.0	8.068
532.0	8.052
534.0	8.049
536.0	8.046
538.0	8.037
540.0	8.032
542.0	8.027
544.0	8.034
546.0	8.022
548.0	8.016
550.0	7.999
552.0	8.003
554.0	7.998
556.0	8.001
558.0	7.989
560.0	7.980
562.0	7.973
564.0	7.977
566.0	7.974
568.0	7.963
570.0	7.947
572.0	7.942
574.0	7.936
576.0	7.930
578.0	7.922
580.0	7.918
582.0	7.920
584.0	7.910
586.0	7.913
588.0	7.913
590.0	7.915
592.0	7.913
594.0	7.910
596.0	7.904
598.0	7.895
600.0	7.898
602.0	7.901
604.0	7.901
606.0	7.894
608.0	7.894
610.0	7.890
612.0	7.882
614.0	7.870
616.0	7.870
618.0	7.867
620.0	7.875
622.0	7.875
624.0	7.874
626.0	7.872
628.0	7.864
630.0	7.856
632.0	7.852
634.0	7.850
636.0	7.854
638.0	7.845
640.0	7.842
642.0	7.835
644.0	7.845
646.0	7.829
648.0	7.827
650.0	7.806
652.0	7.820
654.0	7.819
656.0	7.819
658.0	7.803
660.0	7.784
662.0	7.781
664.0	7.776
666.0	7.782
668.0	7.789
670.0	7.806
672.0	7.806
674.0	7.805
676.0	7.804
678.0	7.815
680.0	7.820
682.0	7.824
684.0	7.812
686.0	7.824
688.0	7.817
690.0	7.832
692.0	7.827
694.0	7.824
696.0	7.805
698.0	7.798
700.0	7.803
702.0	7.809
704.0	7.811
706.0	7.808
708.0	7.812
710.0	7.798
712.0	7.791
714.0	7.793
716.0	7.795
718.0	7.792
720.0	7.774
722.0	7.768
724.0	7.767
726.0	7.775
728.0	7.770
730.0	7.751
732.0	7.747
734.0	7.758
736.0	7.784
738.0	7.791
740.0	7.792
742.0	7.801
744.0	7.789
746.0	7.793
748.0	7.782
750.0	7.777
752.0	7.774
754.0	7.773
756.0	7.799
758.0	7.795
760.0	7.794
762.0	7.786
764.0	7.782
766.0	7.766
768.0	7.760
770.0	7.764
772.0	7.791
774.0	7.770
776.0	7.775
778.0	7.742
780.0	7.764
782.0	7.744
784.0	7.763
786.0	7.747
788.0	7.743
790.0	7.717
792.0	7.742
794.0	7.768
796.0	7.775
798.0	7.762
800.0	7.739
802.0	7.750
804.0	7.736
806.0	7.764
808.0	7.739
810.0	7.727
812.0	7.711
814.0	7.718
816.0	7.722
818.0	7.712
820.0	7.735
822.0	7.749
824.0	7.746
826.0	7.736
828.0	7.730
830.0	7.753
832.0	7.781
834.0	7.823
836.0	7.840
838.0	7.844
840.0	7.837
842.0	7.838
844.0	7.816
846.0	7.802
848.0	7.795
850.0	7.779
852.0	7.767
854.0	7.757
856.0	7.779
858.0	7.814
860.0	7.801
862.0	7.776
864.0	7.708
866.0	7.713
868.0	7.751
870.0	7.831
872.0	7.823
874.0	7.782
876.0	7.718
878.0	7.622
880.0	7.659
882.0	7.693
884.0	7.785
886.0	7.841
888.0	7.721
890.0	7.696
892.0	7.622
894.0	7.585
896.0	7.606
898.0	7.464
900.0	7.717
902.0	7.848
904.0	8.072
906.0	8.072
908.0	8.124
910.0	8.154
912.0	8.170
914.0	8.151
916.0	8.092
918.0	8.055
920.0	8.008
922.0	8.073
924.0	8.110
926.0	8.159
928.0	8.151
930.0	8.112
932.0	8.080
934.0	8.080
936.0	8.109
938.0	8.094
940.0	8.107
942.0	8.108
944.0	8.112
946.0	8.106
948.0	8.121
950.0	8.133
952.0	8.130
954.0	8.125
956.0	8.128
958.0	8.126
960.0	8.127
962.0	8.135
964.0	8.139
966.0	8.142
968.0	8.141
970.0	8.144
972.0	8.150
974.0	8.144
976.0	8.145
978.0	8.154
980.0	8.156
982.0	8.170
984.0	8.160
986.0	8.145
988.0	8.135
990.0	8.132
992.0	8.161
994.0	8.148
996.0	8.127
998.0	8.113
1000.0	8.114
1002.0	8.114
1004.0	8.111
1006.0	8.107
1008.0	8.105
1010.0	8.102
1012.0	8.094
1014.0	8.098
1016.0	8.097
1018.0	8.100
1020.0	8.105
1022.0	8.095
1024.0	8.090
1026.0	8.089
1028.0	8.096
1030.0	8.105
1032.0	8.090
1034.0	8.082
1036.0	8.079
1038.0	8.092
1040.0	8.094
1042.0	8.089
1044.0	8.074
1046.0	8.070
1048.0	8.066
1050.0	8.092
1052.0	8.086
1054.0	8.085
1056.0	8.060
1058.0	8.061
1060.0	8.063
1062.0	8.065
1064.0	8.061
1066.0	8.059
1068.0	8.056
1070.0	8.051
1072.0	8.059
1074.0	8.053
1076.0	8.062
1078.0	8.050
1080.0	8.054
1082.0	8.055
1084.0	8.057
1086.0	8.051
1088.0	8.047
1090.0	8.053
1092.0	8.061
1094.0	8.053
1096.0	8.045
1098.0	8.038
1100.0	8.039
1102.0	8.032
1104.0	8.025
1106.0	8.024
1108.0	8.021
1110.0	8.020
1112.0	8.016
1114.0	8.023
1116.0	8.022
1118.0	8.021
1120.0	8.015
1122.0	8.015
1124.0	8.022
1126.0	8.021
1128.0	8.018
1130.0	8.010
1132.0	8.013
1134.0	8.019
1136.0	8.023
1138.0	8.025
1140.0	8.023
1142.0	8.021
1144.0	8.025
1146.0	8.033
1148.0	8.040
1150.0	8.028
1152.0	8.028
1154.0	8.027
1156.0	8.036
1158.0	8.028
1160.0	8.033
1162.0	8.038
1164.0	8.048
1166.0	8.041
1168.0	8.033
1170.0	8.029
1172.0	8.034
1174.0	8.040
1176.0	8.039
1178.0	8.031
1180.0	8.022
1182.0	8.022
1184.0	8.019
1186.0	8.017
1188.0	8.014
1190.0	8.016
1192.0	8.017
1194.0	8.016
1196.0	8.014
1198.0	8.018
1200.0	8.019
1202.0	8.019
1204.0	8.009
1206.0	8.004
1208.0	8.002
1210.0	8.007
1212.0	7.999
1214.0	7.992
1216.0	7.984
1218.0	7.989
1220.0	7.990
1222.0	7.996
1224.0	7.992
1226.0	7.988
1228.0	7.988
1230.0	7.994
1232.0	7.994
1234.0	7.987
1236.0	7.973
1238.0	7.976
1240.0	7.975
1242.0	7.979
1244.0	7.976
1246.0	7.972
1248.0	7.968
1250.0	7.963
1252.0	7.963
1254.0	7.960
1256.0	7.956
1258.0	7.945
1260.0	7.942
1262.0	7.944
1264.0	7.949
1266.0	7.949
1268.0	7.948
1270.0	7.951
1272.0	7.949
1274.0	7.941
1276.0	7.931
1278.0	7.934
1280.0	7.929
1282.0	7.934
1284.0	7.934
1286.0	7.947
1288.0	7.940
1290.0	7.941
1292.0	7.936
1294.0	7.935
1296.0	7.934
1298.0	7.938
1300.0	7.941
1302.0	7.943
1304.0	7.943
1306.0	7.951
1308.0	7.940
1310.0	7.930
1312.0	7.927
1314.0	7.941
1316.0	7.956
1318.0	7.961
1320.0	7.960
1322.0	7.958
1324.0	7.956
1326.0	7.966
1328.0	7.970
1330.0	7.965
1332.0	7.961
1334.0	7.960
1336.0	7.974
1338.0	7.966
1340.0	7.975
1342.0	7.971
1344.0	7.979
1346.0	7.969
1348.0	7.957
1350.0	7.957
1352.0	7.949
1354.0	7.950
1356.0	7.944
1358.0	7.952
1360.0	7.955
1362.0	7.956
1364.0	7.956
1366.0	7.956
1368.0	7.963
1370.0	7.970
1372.0	7.972
1374.0	7.977
1376.0	7.976
1378.0	7.990
1380.0	7.993
1382.0	8.005
1384.0	8.009
1386.0	8.009
1388.0	8.019
1390.0	8.028
1392.0	8.027
1394.0	8.021
1396.0	8.013
1398.0	8.027
1400.0	8.029
1402.0	8.033
1404.0	8.037
1406.0	8.045
1408.0	8.063
1410.0	8.069
1412.0	8.099
1414.0	8.112
1416.0	8.130
1418.0	8.135
1420.0	8.144
1422.0	8.164
1424.0	8.168
1426.0	8.182
1428.0	8.183
1430.0	8.189
1432.0	8.203
1434.0	8.209
1436.0	8.220
1438.0	8.207
1440.0	8.214
1442.0	8.213
1444.0	8.232
1446.0	8.236
1448.0	8.224
1450.0	8.217
1452.0	8.206
1454.0	8.214
1456.0	8.214
1458.0	8.221
1460.0	8.231
1462.0	8.229
1464.0	8.214
1466.0	8.193
1468.0	8.181
1470.0	8.179
1472.0	8.183
1474.0	8.180
1476.0	8.182
1478.0	8.178
1480.0	8.163
1482.0	8.136
1484.0	8.121
1486.0	8.132
1488.0	8.133
1490.0	8.131
1492.0	8.110
1494.0	8.103
1496.0	8.085
1498.0	8.090
1500.0	8.084
1502.0	8.084
1504.0	8.067
1506.0	8.050
1508.0	8.043
1510.0	8.011
1512.0	8.010
1514.0	8.010
1516.0	8.031
1518.0	8.021
1520.0	8.006
1522.0	7.997
1524.0	7.990
1526.0	7.978
1528.0	7.964
1530.0	7.969
1532.0	7.967
1534.0	7.963
1536.0	7.946
1538.0	7.924
1540.0	7.926
1542.0	7.940
1544.0	7.945
1546.0	7.944
1548.0	7.918
1550.0	7.916
1552.0	7.885
1554.0	7.896
1556.0	7.895
1558.0	7.906
1560.0	7.898
1562.0	7.897
1564.0	7.891
1566.0	7.888
1568.0	7.882
1570.0	7.865
1572.0	7.873
1574.0	7.866
1576.0	7.886
1578.0	7.868
1580.0	7.873
1582.0	7.851
1584.0	7.834
1586.0	7.820
1588.0	7.819
1590.0	7.835
1592.0	7.858
1594.0	7.867
1596.0	7.872
1598.0	7.842
1600.0	7.831
1602.0	7.809
1604.0	7.798
1606.0	7.787
1608.0	7.789
1610.0	7.791
1612.0	7.770
1614.0	7.762
1616.0	7.750
1618.0	7.775
1620.0	7.758
1622.0	7.773
1624.0	7.757
1626.0	7.767
1628.0	7.755
1630.0	7.755
1632.0	7.749
1634.0	7.745
1636.0	7.738
1638.0	7.742
1640.0	7.727
1642.0	7.738
1644.0	7.720
1646.0	7.716
1648.0	7.709
1650.0	7.315
1652.0	6.933
1654.0	6.541
1656.0	6.615
1658.0	6.638
1660.0	6.473
1662.0	6.428
1664.0	6.541
1666.0	6.901
1668.0	7.064
1670.0	7.052
1672.0	7.017
1674.0	6.982
1676.0	7.012
1678.0	6.877
1680.0	6.738
1682.0	6.547
1684.0	6.533
1686.0	6.307
1688.0	6.543
1690.0	6.679
1692.0	7.166
1694.0	7.032
1696.0	6.936
1698.0	6.948
1700.0	6.849
1702.0	6.861
1704.0	6.541
1706.0	6.459
1708.0	6.475
1710.0	6.604
1712.0	6.590
1714.0	6.536
1716.0	6.584
1718.0	6.766
1720.0	6.717
1722.0	6.550
1724.0	6.595
1726.0	6.708
1728.0	6.797
1730.0	6.724
1732.0	6.819
1734.0	6.700
1736.0	6.701
1738.0	6.848
1740.0	7.014
1742.0	6.966
1744.0	6.626
1746.0	6.432
1748.0	6.477
1750.0	6.386
1752.0	6.594
1754.0	6.560
1756.0	6.695
1758.0	6.704
1760.0	6.789
1762.0	6.787
1764.0	6.831
1766.0	7.071
1768.0	7.072
1770.0	6.948
1772.0	6.499
1774.0	6.493
1776.0	6.558
1778.0	6.586
1780.0	6.652
1782.0	6.509
1784.0	6.555
1786.0	6.493
1788.0	6.426
1790.0	6.547
1792.0	6.649
1794.0	6.786
1796.0	6.825
1798.0	6.461
1800.0	6.236
1802.0	6.391
1804.0	6.790
1806.0	7.117
1808.0	6.879
1810.0	6.597
1812.0	6.246
1814.0	6.514
1816.0	6.654
1818.0	6.573
1820.0	6.314
1822.0	6.401
1824.0	6.639
1826.0	6.623
1828.0	6.210
1830.0	6.576
1832.0	6.565
1834.0	6.973
1836.0	6.394
1838.0	6.269
1840.0	6.088
1842.0	6.077
1844.0	5.730
1846.0	5.487
1848.0	5.593
1850.0	6.175
1852.0	6.185
1854.0	6.539
1856.0	6.203
1858.0	6.462
1860.0	6.184
1862.0	6.208
1864.0	6.073
1866.0	6.355
1868.0	6.763
1870.0	7.094
1872.0	6.679
1874.0	6.363
1876.0	6.482
1878.0	6.506
1880.0	7.139
1882.0	7.112
1884.0	7.249
1886.0	6.768
1888.0	6.521
1890.0	6.551
1892.0	6.515
1894.0	6.830
1896.0	7.083
1898.0	7.090
1900.0	6.593
1902.0	6.145
1904.0	5.983
1906.0	6.566
1908.0	6.815
1910.0	7.548
1912.0	7.532
1914.0	8.107
1916.0	7.601
1918.0	7.738
1920.0	7.312
1922.0	7.761
1924.0	7.449
1926.0	7.287
1928.0	7.061
1930.0	6.767
1932.0	6.916
1934.0	7.260
1936.0	7.690
1938.0	8.082
1940.0	7.889
1942.0	7.958
1944.0	7.957
1946.0	7.839
1948.0	7.729
1950.0	7.049
1952.0	6.882
1954.0	6.215
1956.0	6.414
1958.0	6.188
1960.0	6.805
1962.0	7.112
1964.0	7.256
1966.0	7.119
1968.0	6.941
1970.0	6.654
1972.0	6.492
1974.0	6.266
1976.0	6.126
1978.0	6.181
1980.0	6.304
1982.0	6.738
1984.0	6.821
1986.0	6.758
1988.0	6.678
1990.0	6.461
1992.0	6.570
1994.0	6.633
1996.0	6.802
1998.0	6.753
2000.0	6.713
2002.0	7.097
2004.0	7.017
2006.0	7.264
2008.0	7.260
2010.0	7.459
2012.0	7.344
2014.0	6.836
2016.0	7.077
2018.0	6.612
2020.0	6.581
2022.0	5.582
2024.0	5.904
2026.0	6.131
2028.0	6.834
2030.0	7.075
2032.0	6.771
2034.0	5.911
2036.0	5.432
2038.0	5.743
2040.0	6.141
2042.0	6.480
2044.0	6.293
2046.0	6.689
2048.0	7.026
2050.0	7.298
2052.0	7.480
2054.0	7.085
2056.0	7.144
2058.0	7.005
2060.0	6.975
2062.0	6.490
2064.0	6.213
2066.0	6.502
2068.0	7.071
2070.0	7.202
2072.0	6.717
2074.0	6.800
2076.0	6.592
2078.0	7.008
2080.0	5.910
2082.0	6.357
2084.0	5.909
2086.0	6.569
2088.0	6.258
2090.0	5.876
2092.0	5.267
2094.0	4.933
2096.0	5.072
2098.0	6.136
2100.0	6.166
2102.0	5.967
2104.0	5.473
2106.0	6.194
2108.0	6.856
2110.0	6.748
2112.0	6.049
2114.0	5.539
2116.0	5.174
2118.0	5.792
2120.0	6.388
2122.0	6.384
2124.0	6.150
2126.0	6.019
2128.0	6.884
2130.0	6.322
2132.0	6.086
2134.0	5.718
2136.0	6.053
2138.0	6.092
2140.0	5.756
2142.0	5.785
2144.0	5.498
2146.0	5.731
2148.0	5.500
2150.0	6.196
2152.0	5.415
2154.0	5.111
2156.0	4.838
2158.0	5.575
2160.0	6.645
2162.0	6.495
2164.0	7.221
2166.0	6.596
2168.0	6.025
2170.0	5.448
2172.0	5.751
2174.0	6.352
2176.0	6.044
2178.0	6.728
2180.0	6.038
2182.0	6.319
2184.0	4.801
2186.0	4.654
2188.0	4.350
2190.0	5.033
2192.0	6.003
2194.0	5.779
2196.0	6.117
2198.0	5.647
2200.0	6.211
2202.0	6.485
2204.0	6.156
2206.0	5.693
2208.0	4.641
2210.0	5.091
2212.0	6.513
2214.0	6.381
2216.0	6.982
2218.0	5.330
2220.0	5.395
2222.0	4.932
2224.0	4.659
2226.0	4.760
2228.0	4.354
2230.0	5.475
2232.0	5.512
2234.0	6.306
2236.0	5.045
2238.0	5.070
2240.0	5.041
2242.0	5.980
2244.0	6.318
2246.0	6.001
2248.0	6.047
2250.0	5.472
2252.0	5.665
2254.0	5.884
2256.0	6.733
2258.0	7.473
2260.0	7.576
2262.0	7.288
2264.0	6.234
2266.0	5.731
2268.0	5.863
2270.0	5.638
2272.0	6.582
2274.0	6.730
2276.0	7.044
2278.0	6.651
2280.0	6.178
2282.0	6.215
2284.0	5.300
2286.0	4.635
2288.0	4.065
2290.0	4.322
2292.0	5.450
2294.0	6.449
2296.0	6.397
2298.0	5.660
2300.0	5.126
