[SUMMARY]
Software Information
Software Name:	UVProbe
Version:	2.43
Mode:	Normal Mode

Data Information
Data is:	Original
Analyst:	
Date/Time:	05/11/2021 13:07:26
Comments:	

Instrument Information
Instrument Name:	SolidSpec3700
Instrument Type:	SolidSpec-3700 Series
Model (S/N):	SolidSpec3700 ( A11085100264CZ )

[METHOD]
[Measurement Properties]
Wavelength Range (nm.):	230,00 to 2500,00
Scan Speed:	Medium
Sampling Interval:	2,0
Auto Sampling Interval:	Disabled
Scan Mode:	Single

[Sample Preparation Properties]
Weight:	
Volume:	
Dilution:	
Path Length:	
Additional Information:	

[Instrument Properties]
Instrument Type:	SolidSpec-3700 Series
Measuring Mode:	Reflectance
Slit Width:	8,0 nm
Time Constant:	1,0 sec.
Source Lamp:	Auto
Light Source Change Wavelength:	295,00 nm
Detector Unit:	Integral Sphere
Detector Change Wavelength:	900,00 nm  1650,00 nm
Grating Change Wavelength:	830,00 nm
S/R Exchange:	Inverse
Detector Lock:	Auto
Slit Program:	Normal
Beam Mode:	Double
Stair Correction:	Disable

[Attachment Properties]
Attachment:	X-Y Stage
Sequence File:	Positions.xys

[Operation]
Threshold:	0,0010000
Points:	4
InterPolate:	Disabled
Average:	Disabled

[DATA]
Wavelength	Data
230.0	4.095
232.0	4.102
234.0	4.123
236.0	4.137
238.0	4.144
240.0	4.156
242.0	4.186
244.0	4.229
246.0	4.265
248.0	4.309
250.0	4.351
252.0	4.411
254.0	4.451
256.0	4.489
258.0	4.496
260.0	4.486
262.0	4.471
264.0	4.466
266.0	4.442
268.0	4.429
270.0	4.395
272.0	4.381
274.0	4.323
276.0	4.280
278.0	4.242
280.0	4.229
282.0	4.231
284.0	4.231
286.0	4.261
288.0	4.266
290.0	4.267
292.0	4.261
294.0	4.105
296.0	4.194
298.0	4.310
300.0	4.528
302.0	4.265
304.0	3.966
306.0	4.002
308.0	4.250
310.0	4.483
312.0	4.242
314.0	3.765
316.0	3.474
318.0	3.747
320.0	3.849
322.0	4.068
324.0	3.948
326.0	4.342
328.0	4.292
330.0	4.250
332.0	4.139
334.0	4.170
336.0	4.157
338.0	4.059
340.0	4.021
342.0	3.987
344.0	4.033
346.0	4.035
348.0	4.059
350.0	4.082
352.0	4.093
354.0	4.098
356.0	4.098
358.0	4.109
360.0	4.128
362.0	4.188
364.0	4.281
366.0	4.395
368.0	4.555
370.0	4.746
372.0	5.008
374.0	5.306
376.0	5.639
378.0	5.967
380.0	6.296
382.0	6.590
384.0	6.856
386.0	7.047
388.0	7.213
390.0	7.314
392.0	7.413
394.0	7.483
396.0	7.549
398.0	7.595
400.0	7.631
402.0	7.659
404.0	7.677
406.0	7.686
408.0	7.687
410.0	7.692
412.0	7.695
414.0	7.706
416.0	7.708
418.0	7.719
420.0	7.719
422.0	7.710
424.0	7.692
426.0	7.684
428.0	7.682
430.0	7.681
432.0	7.659
434.0	7.647
436.0	7.631
438.0	7.629
440.0	7.618
442.0	7.610
444.0	7.609
446.0	7.602
448.0	7.587
450.0	7.573
452.0	7.562
454.0	7.552
456.0	7.536
458.0	7.526
460.0	7.512
462.0	7.501
464.0	7.485
466.0	7.475
468.0	7.470
470.0	7.467
472.0	7.456
474.0	7.455
476.0	7.454
478.0	7.465
480.0	7.454
482.0	7.450
484.0	7.451
486.0	7.453
488.0	7.450
490.0	7.439
492.0	7.433
494.0	7.422
496.0	7.417
498.0	7.416
500.0	7.412
502.0	7.408
504.0	7.410
506.0	7.415
508.0	7.419
510.0	7.407
512.0	7.404
514.0	7.394
516.0	7.392
518.0	7.383
520.0	7.380
522.0	7.374
524.0	7.374
526.0	7.374
528.0	7.376
530.0	7.362
532.0	7.348
534.0	7.336
536.0	7.338
538.0	7.339
540.0	7.344
542.0	7.340
544.0	7.332
546.0	7.325
548.0	7.318
550.0	7.311
552.0	7.306
554.0	7.299
556.0	7.299
558.0	7.295
560.0	7.286
562.0	7.277
564.0	7.272
566.0	7.276
568.0	7.270
570.0	7.260
572.0	7.250
574.0	7.245
576.0	7.236
578.0	7.234
580.0	7.236
582.0	7.239
584.0	7.232
586.0	7.227
588.0	7.223
590.0	7.229
592.0	7.233
594.0	7.233
596.0	7.224
598.0	7.219
600.0	7.218
602.0	7.228
604.0	7.218
606.0	7.216
608.0	7.202
610.0	7.215
612.0	7.210
614.0	7.212
616.0	7.201
618.0	7.195
620.0	7.183
622.0	7.182
624.0	7.187
626.0	7.198
628.0	7.189
630.0	7.180
632.0	7.178
634.0	7.176
636.0	7.177
638.0	7.172
640.0	7.169
642.0	7.169
644.0	7.174
646.0	7.173
648.0	7.169
650.0	7.162
652.0	7.167
654.0	7.160
656.0	7.154
658.0	7.131
660.0	7.121
662.0	7.113
664.0	7.114
666.0	7.117
668.0	7.119
670.0	7.136
672.0	7.143
674.0	7.149
676.0	7.140
678.0	7.141
680.0	7.141
682.0	7.158
684.0	7.163
686.0	7.169
688.0	7.151
690.0	7.138
692.0	7.125
694.0	7.141
696.0	7.157
698.0	7.166
700.0	7.159
702.0	7.156
704.0	7.152
706.0	7.140
708.0	7.146
710.0	7.139
712.0	7.152
714.0	7.144
716.0	7.156
718.0	7.143
720.0	7.130
722.0	7.113
724.0	7.123
726.0	7.116
728.0	7.114
730.0	7.109
732.0	7.118
734.0	7.130
736.0	7.118
738.0	7.126
740.0	7.123
742.0	7.129
744.0	7.127
746.0	7.114
748.0	7.118
750.0	7.121
752.0	7.110
754.0	7.123
756.0	7.120
758.0	7.158
760.0	7.147
762.0	7.152
764.0	7.137
766.0	7.139
768.0	7.132
770.0	7.121
772.0	7.120
774.0	7.106
776.0	7.110
778.0	7.107
780.0	7.109
782.0	7.116
784.0	7.100
786.0	7.093
788.0	7.088
790.0	7.093
792.0	7.107
794.0	7.111
796.0	7.122
798.0	7.134
800.0	7.137
802.0	7.100
804.0	7.054
806.0	7.035
808.0	7.048
810.0	7.067
812.0	7.070
814.0	7.089
816.0	7.102
818.0	7.104
820.0	7.108
822.0	7.093
824.0	7.124
826.0	7.101
828.0	7.106
830.0	7.115
832.0	7.156
834.0	7.180
836.0	7.168
838.0	7.171
840.0	7.187
842.0	7.192
844.0	7.190
846.0	7.149
848.0	7.121
850.0	7.081
852.0	7.107
854.0	7.118
856.0	7.108
858.0	7.072
860.0	7.041
862.0	7.073
864.0	7.121
866.0	7.134
868.0	7.133
870.0	7.097
872.0	7.114
874.0	7.118
876.0	7.074
878.0	6.996
880.0	6.987
882.0	7.060
884.0	7.008
886.0	7.089
888.0	6.961
890.0	7.101
892.0	7.081
894.0	7.160
896.0	7.148
898.0	6.985
900.0	7.101
902.0	7.185
904.0	7.361
906.0	7.365
908.0	7.408
910.0	7.458
912.0	7.463
914.0	7.423
916.0	7.422
918.0	7.395
920.0	7.417
922.0	7.421
924.0	7.458
926.0	7.462
928.0	7.459
930.0	7.445
932.0	7.464
934.0	7.431
936.0	7.440
938.0	7.403
940.0	7.413
942.0	7.421
944.0	7.451
946.0	7.438
948.0	7.429
950.0	7.419
952.0	7.438
954.0	7.449
956.0	7.437
958.0	7.464
960.0	7.473
962.0	7.494
964.0	7.466
966.0	7.466
968.0	7.443
970.0	7.448
972.0	7.439
974.0	7.439
976.0	7.436
978.0	7.418
980.0	7.418
982.0	7.424
984.0	7.441
986.0	7.450
988.0	7.435
990.0	7.426
992.0	7.420
994.0	7.419
996.0	7.411
998.0	7.405
1000.0	7.398
1002.0	7.394
1004.0	7.376
1006.0	7.373
1008.0	7.371
1010.0	7.367
1012.0	7.368
1014.0	7.373
1016.0	7.378
1018.0	7.370
1020.0	7.371
1022.0	7.370
1024.0	7.376
1026.0	7.378
1028.0	7.391
1030.0	7.387
1032.0	7.385
1034.0	7.375
1036.0	7.382
1038.0	7.380
1040.0	7.388
1042.0	7.386
1044.0	7.387
1046.0	7.382
1048.0	7.384
1050.0	7.379
1052.0	7.380
1054.0	7.373
1056.0	7.379
1058.0	7.379
1060.0	7.380
1062.0	7.380
1064.0	7.391
1066.0	7.406
1068.0	7.406
1070.0	7.401
1072.0	7.389
1074.0	7.394
1076.0	7.394
1078.0	7.391
1080.0	7.381
1082.0	7.376
1084.0	7.375
1086.0	7.376
1088.0	7.375
1090.0	7.381
1092.0	7.386
1094.0	7.376
1096.0	7.368
1098.0	7.356
1100.0	7.355
1102.0	7.342
1104.0	7.333
1106.0	7.316
1108.0	7.305
1110.0	7.284
1112.0	7.275
1114.0	7.264
1116.0	7.245
1118.0	7.211
1120.0	7.174
1122.0	7.144
1124.0	7.112
1126.0	7.077
1128.0	7.044
1130.0	7.024
1132.0	6.996
1134.0	6.958
1136.0	6.925
1138.0	6.890
1140.0	6.866
1142.0	6.836
1144.0	6.806
1146.0	6.784
1148.0	6.754
1150.0	6.727
1152.0	6.683
1154.0	6.637
1156.0	6.586
1158.0	6.547
1160.0	6.512
1162.0	6.479
1164.0	6.444
1166.0	6.407
1168.0	6.387
1170.0	6.366
1172.0	6.355
1174.0	6.354
1176.0	6.362
1178.0	6.389
1180.0	6.419
1182.0	6.478
1184.0	6.538
1186.0	6.608
1188.0	6.660
1190.0	6.716
1192.0	6.761
1194.0	6.807
1196.0	6.838
1198.0	6.880
1200.0	6.922
1202.0	6.969
1204.0	6.998
1206.0	7.028
1208.0	7.052
1210.0	7.096
1212.0	7.133
1214.0	7.167
1216.0	7.183
1218.0	7.197
1220.0	7.208
1222.0	7.219
1224.0	7.225
1226.0	7.225
1228.0	7.230
1230.0	7.241
1232.0	7.251
1234.0	7.259
1236.0	7.256
1238.0	7.265
1240.0	7.269
1242.0	7.274
1244.0	7.270
1246.0	7.276
1248.0	7.276
1250.0	7.282
1252.0	7.285
1254.0	7.290
1256.0	7.293
1258.0	7.291
1260.0	7.288
1262.0	7.280
1264.0	7.278
1266.0	7.282
1268.0	7.299
1270.0	7.288
1272.0	7.285
1274.0	7.276
1276.0	7.287
1278.0	7.282
1280.0	7.279
1282.0	7.268
1284.0	7.274
1286.0	7.271
1288.0	7.277
1290.0	7.273
1292.0	7.274
1294.0	7.283
1296.0	7.290
1298.0	7.285
1300.0	7.272
1302.0	7.259
1304.0	7.254
1306.0	7.251
1308.0	7.258
1310.0	7.264
1312.0	7.260
1314.0	7.249
1316.0	7.240
1318.0	7.232
1320.0	7.215
1322.0	7.205
1324.0	7.181
1326.0	7.154
1328.0	7.118
1330.0	7.069
1332.0	7.001
1334.0	6.921
1336.0	6.836
1338.0	6.759
1340.0	6.663
1342.0	6.578
1344.0	6.510
1346.0	6.461
1348.0	6.420
1350.0	6.385
1352.0	6.356
1354.0	6.343
1356.0	6.337
1358.0	6.324
1360.0	6.295
1362.0	6.246
1364.0	6.199
1366.0	6.154
1368.0	6.122
1370.0	6.112
1372.0	6.130
1374.0	6.142
1376.0	6.160
1378.0	6.159
1380.0	6.177
1382.0	6.184
1384.0	6.203
1386.0	6.226
1388.0	6.237
1390.0	6.246
1392.0	6.261
1394.0	6.316
1396.0	6.356
1398.0	6.401
1400.0	6.417
1402.0	6.446
1404.0	6.454
1406.0	6.464
1408.0	6.476
1410.0	6.496
1412.0	6.503
1414.0	6.505
1416.0	6.485
1418.0	6.489
1420.0	6.487
1422.0	6.512
1424.0	6.527
1426.0	6.556
1428.0	6.576
1430.0	6.595
1432.0	6.613
1434.0	6.638
1436.0	6.662
1438.0	6.696
1440.0	6.722
1442.0	6.769
1444.0	6.814
1446.0	6.866
1448.0	6.917
1450.0	6.984
1452.0	7.032
1454.0	7.066
1456.0	7.078
1458.0	7.094
1460.0	7.115
1462.0	7.111
1464.0	7.135
1466.0	7.123
1468.0	7.132
1470.0	7.122
1472.0	7.153
1474.0	7.174
1476.0	7.187
1478.0	7.185
1480.0	7.182
1482.0	7.194
1484.0	7.199
1486.0	7.211
1488.0	7.232
1490.0	7.241
1492.0	7.251
1494.0	7.247
1496.0	7.254
1498.0	7.257
1500.0	7.243
1502.0	7.236
1504.0	7.231
1506.0	7.236
1508.0	7.221
1510.0	7.213
1512.0	7.224
1514.0	7.231
1516.0	7.243
1518.0	7.232
1520.0	7.227
1522.0	7.209
1524.0	7.210
1526.0	7.217
1528.0	7.215
1530.0	7.201
1532.0	7.191
1534.0	7.180
1536.0	7.169
1538.0	7.145
1540.0	7.167
1542.0	7.164
1544.0	7.184
1546.0	7.164
1548.0	7.157
1550.0	7.127
1552.0	7.129
1554.0	7.117
1556.0	7.123
1558.0	7.090
1560.0	7.088
1562.0	7.084
1564.0	7.091
1566.0	7.080
1568.0	7.067
1570.0	7.047
1572.0	7.032
1574.0	7.010
1576.0	7.013
1578.0	7.018
1580.0	7.024
1582.0	7.006
1584.0	6.982
1586.0	6.938
1588.0	6.916
1590.0	6.898
1592.0	6.901
1594.0	6.904
1596.0	6.898
1598.0	6.879
1600.0	6.842
1602.0	6.814
1604.0	6.799
1606.0	6.796
1608.0	6.755
1610.0	6.714
1612.0	6.682
1614.0	6.677
1616.0	6.642
1618.0	6.603
1620.0	6.570
1622.0	6.538
1624.0	6.507
1626.0	6.455
1628.0	6.427
1630.0	6.370
1632.0	6.342
1634.0	6.335
1636.0	6.324
1638.0	6.290
1640.0	6.219
1642.0	6.146
1644.0	6.070
1646.0	5.963
1648.0	5.836
1650.0	5.511
1652.0	5.025
1654.0	4.672
1656.0	4.519
1658.0	4.551
1660.0	4.331
1662.0	4.288
1664.0	4.095
1666.0	4.014
1668.0	3.981
1670.0	3.852
1672.0	3.940
1674.0	3.576
1676.0	3.694
1678.0	3.619
1680.0	3.884
1682.0	3.802
1684.0	4.002
1686.0	4.153
1688.0	4.314
1690.0	4.098
1692.0	3.864
1694.0	3.815
1696.0	3.827
1698.0	3.788
1700.0	3.823
1702.0	3.894
1704.0	3.958
1706.0	3.844
1708.0	3.977
1710.0	3.876
1712.0	3.972
1714.0	3.892
1716.0	3.910
1718.0	3.947
1720.0	3.937
1722.0	4.147
1724.0	4.122
1726.0	4.241
1728.0	4.274
1730.0	4.303
1732.0	4.145
1734.0	4.121
1736.0	4.171
1738.0	4.287
1740.0	4.053
1742.0	4.031
1744.0	4.063
1746.0	4.387
1748.0	4.409
1750.0	4.483
1752.0	4.645
1754.0	4.829
1756.0	4.837
1758.0	4.758
1760.0	4.656
1762.0	4.646
1764.0	4.644
1766.0	4.985
1768.0	4.853
1770.0	4.690
1772.0	4.651
1774.0	4.672
1776.0	4.589
1778.0	4.504
1780.0	4.720
1782.0	4.997
1784.0	4.603
1786.0	4.460
1788.0	4.474
1790.0	4.688
1792.0	4.858
1794.0	4.743
1796.0	5.013
1798.0	5.008
1800.0	5.074
1802.0	5.174
1804.0	5.399
1806.0	5.537
1808.0	5.001
1810.0	4.657
1812.0	4.529
1814.0	4.975
1816.0	5.294
1818.0	5.161
1820.0	4.853
1822.0	5.031
1824.0	5.355
1826.0	5.756
1828.0	5.709
1830.0	5.979
1832.0	5.928
1834.0	5.677
1836.0	5.676
1838.0	5.628
1840.0	5.778
1842.0	5.438
1844.0	4.907
1846.0	4.722
1848.0	4.547
1850.0	4.756
1852.0	4.653
1854.0	4.876
1856.0	5.146
1858.0	5.497
1860.0	5.551
1862.0	5.651
1864.0	5.378
1866.0	5.457
1868.0	5.414
1870.0	5.593
1872.0	5.867
1874.0	6.042
1876.0	6.237
1878.0	5.568
1880.0	5.370
1882.0	4.877
1884.0	5.031
1886.0	5.146
1888.0	4.909
1890.0	4.870
1892.0	4.597
1894.0	5.242
1896.0	5.084
1898.0	4.433
1900.0	4.462
1902.0	4.760
1904.0	5.107
1906.0	4.749
1908.0	4.920
1910.0	5.312
1912.0	5.316
1914.0	5.359
1916.0	5.372
1918.0	5.449
1920.0	5.027
1922.0	4.767
1924.0	4.595
1926.0	4.843
1928.0	5.451
1930.0	5.822
1932.0	6.048
1934.0	5.988
1936.0	5.770
1938.0	5.649
1940.0	5.817
1942.0	6.189
1944.0	6.138
1946.0	5.898
1948.0	6.027
1950.0	5.632
1952.0	5.400
1954.0	4.803
1956.0	4.761
1958.0	5.152
1960.0	4.976
1962.0	5.754
1964.0	4.881
1966.0	5.654
1968.0	5.252
1970.0	6.017
1972.0	5.798
1974.0	5.899
1976.0	6.203
1978.0	6.331
1980.0	6.367
1982.0	5.552
1984.0	5.289
1986.0	5.208
1988.0	5.784
1990.0	5.582
1992.0	5.319
1994.0	5.384
1996.0	5.645
1998.0	5.983
2000.0	5.977
2002.0	5.570
2004.0	5.925
2006.0	5.484
2008.0	5.852
2010.0	5.539
2012.0	6.388
2014.0	6.234
2016.0	6.531
2018.0	5.593
2020.0	5.896
2022.0	5.278
2024.0	5.725
2026.0	5.051
2028.0	5.139
2030.0	5.007
2032.0	5.552
2034.0	5.312
2036.0	4.954
2038.0	4.803
2040.0	5.444
2042.0	5.802
2044.0	5.772
2046.0	5.349
2048.0	5.384
2050.0	5.213
2052.0	5.082
2054.0	5.128
2056.0	5.714
2058.0	5.629
2060.0	5.404
2062.0	5.023
2064.0	4.962
2066.0	5.408
2068.0	5.471
2070.0	5.864
2072.0	5.203
2074.0	4.754
2076.0	4.404
2078.0	4.369
2080.0	4.712
2082.0	4.632
2084.0	4.931
2086.0	4.557
2088.0	4.137
2090.0	3.474
2092.0	3.467
2094.0	3.487
2096.0	3.545
2098.0	3.775
2100.0	4.026
2102.0	4.225
2104.0	3.842
2106.0	3.801
2108.0	3.363
2110.0	3.481
2112.0	4.083
2114.0	3.992
2116.0	4.340
2118.0	3.305
2120.0	4.118
2122.0	3.496
2124.0	4.138
2126.0	3.301
2128.0	3.025
2130.0	2.451
2132.0	2.765
2134.0	3.303
2136.0	3.160
2138.0	3.447
2140.0	3.702
2142.0	3.328
2144.0	3.146
2146.0	2.250
2148.0	2.936
2150.0	3.061
2152.0	3.351
2154.0	3.930
2156.0	3.636
2158.0	4.336
2160.0	3.939
2162.0	4.137
2164.0	3.957
2166.0	4.033
2168.0	4.341
2170.0	4.418
2172.0	4.663
2174.0	3.541
2176.0	3.482
2178.0	3.692
2180.0	4.308
2182.0	4.331
2184.0	4.094
2186.0	4.563
2188.0	4.073
2190.0	3.840
2192.0	3.779
2194.0	3.896
2196.0	3.294
2198.0	2.398
2200.0	2.651
2202.0	3.368
2204.0	3.554
2206.0	3.288
2208.0	2.306
2210.0	1.726
2212.0	1.698
2214.0	3.008
2216.0	4.102
2218.0	2.948
2220.0	1.873
2222.0	2.348
2224.0	3.585
2226.0	3.494
2228.0	2.490
2230.0	2.245
2232.0	2.820
2234.0	3.202
2236.0	2.757
2238.0	2.285
2240.0	2.457
2242.0	2.256
2244.0	2.404
2246.0	2.804
2248.0	3.405
2250.0	3.716
2252.0	2.845
2254.0	2.683
2256.0	2.717
2258.0	2.635
2260.0	3.344
2262.0	3.443
2264.0	3.515
2266.0	3.360
2268.0	3.577
2270.0	3.362
2272.0	3.507
2274.0	2.968
2276.0	2.822
2278.0	2.119
2280.0	2.520
2282.0	3.373
2284.0	2.915
2286.0	2.442
2288.0	2.216
2290.0	2.603
2292.0	2.300
2294.0	1.917
2296.0	2.423
2298.0	2.678
2300.0	3.727
2302.0	3.209
2304.0	3.234
2306.0	2.096
2308.0	2.946
2310.0	3.463
2312.0	4.811
2314.0	3.951
2316.0	3.932
2318.0	1.681
2320.0	2.255
2322.0	2.025
2324.0	3.475
2326.0	4.783
2328.0	4.285
2330.0	2.767
2332.0	1.301
2334.0	2.835
2336.0	5.046
2338.0	6.001
2340.0	4.876
2342.0	4.248
2344.0	4.516
2346.0	4.882
2348.0	4.085
2350.0	1.956
2352.0	4.166
2354.0	3.603
2356.0	3.845
2358.0	2.442
2360.0	4.143
2362.0	5.422
2364.0	4.305
2366.0	2.855
2368.0	1.467
2370.0	2.248
2372.0	3.909
2374.0	5.365
2376.0	4.049
2378.0	3.412
2380.0	1.552
2382.0	3.516
2384.0	1.817
2386.0	3.458
2388.0	2.527
2390.0	3.225
2392.0	3.550
2394.0	3.543
2396.0	4.248
2398.0	3.588
2400.0	2.926
2402.0	3.942
2404.0	4.916
2406.0	5.475
2408.0	4.253
2410.0	4.366
2412.0	4.673
2414.0	5.583
2416.0	4.461
2418.0	2.971
2420.0	1.481
2422.0	1.928
2424.0	1.926
2426.0	2.110
2428.0	0.305
2430.0	0.962
2432.0	0.980
2434.0	3.257
2436.0	2.852
2438.0	4.522
2440.0	4.185
2442.0	7.220
2444.0	7.649
2446.0	5.973
2448.0	5.408
2450.0	5.661
2452.0	4.608
2454.0	1.540
2456.0	-0.355
2458.0	0.683
2460.0	1.601
2462.0	1.815
2464.0	3.890
2466.0	5.901
2468.0	6.379
2470.0	7.617
2472.0	7.042
2474.0	7.699
2476.0	3.212
2478.0	-0.020
2480.0	-2.451
2482.0	2.036
2484.0	4.088
2486.0	6.283
2488.0	1.765
2490.0	0.365
2492.0	-0.563
2494.0	3.004
2496.0	5.672
2498.0	4.368
2500.0	1.644
