[SUMMARY]
Software Information
Software Name:	UVProbe
Version:	2.43
Mode:	Normal Mode

Data Information
Data is:	Original
Analyst:	
Date/Time:	05/11/2021 13:14:37
Comments:	

Instrument Information
Instrument Name:	SolidSpec3700
Instrument Type:	SolidSpec-3700 Series
Model (S/N):	SolidSpec3700 ( A11085100264CZ )

[METHOD]
[Measurement Properties]
Wavelength Range (nm.):	230,00 to 2500,00
Scan Speed:	Medium
Sampling Interval:	2,0
Auto Sampling Interval:	Disabled
Scan Mode:	Single

[Sample Preparation Properties]
Weight:	
Volume:	
Dilution:	
Path Length:	
Additional Information:	

[Instrument Properties]
Instrument Type:	SolidSpec-3700 Series
Measuring Mode:	Reflectance
Slit Width:	8,0 nm
Time Constant:	1,0 sec.
Source Lamp:	Auto
Light Source Change Wavelength:	295,00 nm
Detector Unit:	Integral Sphere
Detector Change Wavelength:	900,00 nm  1650,00 nm
Grating Change Wavelength:	830,00 nm
S/R Exchange:	Inverse
Detector Lock:	Auto
Slit Program:	Normal
Beam Mode:	Double
Stair Correction:	Disable

[Attachment Properties]
Attachment:	X-Y Stage
Sequence File:	Positions.xys

[Operation]
Threshold:	0,0010000
Points:	4
InterPolate:	Disabled
Average:	Disabled

[DATA]
Wavelength	Data
230.0	10.044
232.0	10.027
234.0	9.983
236.0	9.848
238.0	9.643
240.0	9.359
242.0	9.161
244.0	8.967
246.0	8.812
248.0	8.617
250.0	8.459
252.0	8.355
254.0	8.278
256.0	8.183
258.0	8.075
260.0	7.965
262.0	7.890
264.0	7.819
266.0	7.778
268.0	7.730
270.0	7.681
272.0	7.634
274.0	7.604
276.0	7.639
278.0	7.750
280.0	8.002
282.0	8.342
284.0	8.709
286.0	9.044
288.0	9.321
290.0	9.534
292.0	9.689
294.0	10.211
296.0	10.173
298.0	10.682
300.0	10.614
302.0	10.724
304.0	10.536
306.0	10.324
308.0	10.489
310.0	10.482
312.0	10.788
314.0	10.915
316.0	11.112
318.0	11.034
320.0	10.694
322.0	10.416
324.0	10.298
326.0	10.624
328.0	10.619
330.0	10.587
332.0	10.550
334.0	10.618
336.0	10.581
338.0	10.552
340.0	10.438
342.0	10.509
344.0	10.510
346.0	10.583
348.0	10.574
350.0	10.580
352.0	10.526
354.0	10.517
356.0	10.506
358.0	10.551
360.0	10.516
362.0	10.504
364.0	10.520
366.0	10.532
368.0	10.525
370.0	10.479
372.0	10.498
374.0	10.522
376.0	10.535
378.0	10.516
380.0	10.500
382.0	10.499
384.0	10.491
386.0	10.479
388.0	10.475
390.0	10.478
392.0	10.484
394.0	10.499
396.0	10.508
398.0	10.537
400.0	10.534
402.0	10.544
404.0	10.539
406.0	10.557
408.0	10.559
410.0	10.566
412.0	10.557
414.0	10.558
416.0	10.560
418.0	10.547
420.0	10.527
422.0	10.500
424.0	10.493
426.0	10.482
428.0	10.466
430.0	10.450
432.0	10.426
434.0	10.415
436.0	10.388
438.0	10.377
440.0	10.352
442.0	10.330
444.0	10.313
446.0	10.292
448.0	10.274
450.0	10.255
452.0	10.239
454.0	10.221
456.0	10.201
458.0	10.179
460.0	10.158
462.0	10.138
464.0	10.120
466.0	10.097
468.0	10.088
470.0	10.076
472.0	10.070
474.0	10.059
476.0	10.054
478.0	10.057
480.0	10.049
482.0	10.041
484.0	10.027
486.0	10.010
488.0	9.991
490.0	9.983
492.0	9.980
494.0	9.973
496.0	9.963
498.0	9.946
500.0	9.943
502.0	9.930
504.0	9.925
506.0	9.910
508.0	9.903
510.0	9.895
512.0	9.889
514.0	9.882
516.0	9.876
518.0	9.867
520.0	9.857
522.0	9.847
524.0	9.837
526.0	9.827
528.0	9.811
530.0	9.794
532.0	9.780
534.0	9.775
536.0	9.774
538.0	9.764
540.0	9.756
542.0	9.754
544.0	9.747
546.0	9.733
548.0	9.725
550.0	9.718
552.0	9.712
554.0	9.685
556.0	9.683
558.0	9.671
560.0	9.673
562.0	9.660
564.0	9.652
566.0	9.642
568.0	9.632
570.0	9.620
572.0	9.603
574.0	9.592
576.0	9.581
578.0	9.581
580.0	9.569
582.0	9.562
584.0	9.549
586.0	9.548
588.0	9.552
590.0	9.545
592.0	9.544
594.0	9.533
596.0	9.541
598.0	9.534
600.0	9.527
602.0	9.520
604.0	9.513
606.0	9.518
608.0	9.512
610.0	9.515
612.0	9.507
614.0	9.507
616.0	9.500
618.0	9.486
620.0	9.477
622.0	9.469
624.0	9.469
626.0	9.462
628.0	9.459
630.0	9.462
632.0	9.457
634.0	9.446
636.0	9.431
638.0	9.429
640.0	9.437
642.0	9.439
644.0	9.436
646.0	9.427
648.0	9.424
650.0	9.416
652.0	9.405
654.0	9.397
656.0	9.383
658.0	9.371
660.0	9.359
662.0	9.354
664.0	9.346
666.0	9.346
668.0	9.356
670.0	9.379
672.0	9.388
674.0	9.394
676.0	9.397
678.0	9.406
680.0	9.406
682.0	9.399
684.0	9.387
686.0	9.380
688.0	9.377
690.0	9.374
692.0	9.384
694.0	9.392
696.0	9.388
698.0	9.386
700.0	9.387
702.0	9.387
704.0	9.381
706.0	9.363
708.0	9.360
710.0	9.361
712.0	9.379
714.0	9.373
716.0	9.364
718.0	9.354
720.0	9.357
722.0	9.341
724.0	9.328
726.0	9.320
728.0	9.337
730.0	9.346
732.0	9.346
734.0	9.334
736.0	9.319
738.0	9.320
740.0	9.324
742.0	9.345
744.0	9.356
746.0	9.356
748.0	9.345
750.0	9.331
752.0	9.317
754.0	9.326
756.0	9.331
758.0	9.351
760.0	9.334
762.0	9.329
764.0	9.323
766.0	9.318
768.0	9.324
770.0	9.289
772.0	9.283
774.0	9.276
776.0	9.310
778.0	9.306
780.0	9.296
782.0	9.281
784.0	9.276
786.0	9.265
788.0	9.252
790.0	9.262
792.0	9.261
794.0	9.254
796.0	9.253
798.0	9.259
800.0	9.286
802.0	9.281
804.0	9.281
806.0	9.262
808.0	9.259
810.0	9.249
812.0	9.239
814.0	9.238
816.0	9.252
818.0	9.262
820.0	9.274
822.0	9.261
824.0	9.269
826.0	9.283
828.0	9.306
830.0	9.337
832.0	9.345
834.0	9.366
836.0	9.364
838.0	9.366
840.0	9.366
842.0	9.354
844.0	9.357
846.0	9.357
848.0	9.364
850.0	9.336
852.0	9.313
854.0	9.308
856.0	9.315
858.0	9.328
860.0	9.324
862.0	9.327
864.0	9.295
866.0	9.281
868.0	9.226
870.0	9.184
872.0	9.145
874.0	9.095
876.0	9.155
878.0	9.144
880.0	9.260
882.0	9.219
884.0	9.260
886.0	9.298
888.0	9.259
890.0	9.275
892.0	9.305
894.0	9.441
896.0	9.524
898.0	9.323
900.0	9.429
902.0	9.455
904.0	9.723
906.0	9.654
908.0	9.665
910.0	9.640
912.0	9.704
914.0	9.735
916.0	9.736
918.0	9.706
920.0	9.702
922.0	9.713
924.0	9.699
926.0	9.684
928.0	9.675
930.0	9.675
932.0	9.635
934.0	9.624
936.0	9.622
938.0	9.669
940.0	9.696
942.0	9.714
944.0	9.712
946.0	9.689
948.0	9.685
950.0	9.674
952.0	9.663
954.0	9.665
956.0	9.680
958.0	9.693
960.0	9.718
962.0	9.737
964.0	9.749
966.0	9.740
968.0	9.713
970.0	9.707
972.0	9.716
974.0	9.710
976.0	9.708
978.0	9.700
980.0	9.704
982.0	9.704
984.0	9.715
986.0	9.725
988.0	9.733
990.0	9.687
992.0	9.681
994.0	9.670
996.0	9.689
998.0	9.679
1000.0	9.671
1002.0	9.663
1004.0	9.663
1006.0	9.655
1008.0	9.674
1010.0	9.671
1012.0	9.677
1014.0	9.656
1016.0	9.651
1018.0	9.643
1020.0	9.641
1022.0	9.635
1024.0	9.629
1026.0	9.631
1028.0	9.646
1030.0	9.664
1032.0	9.654
1034.0	9.641
1036.0	9.633
1038.0	9.642
1040.0	9.635
1042.0	9.628
1044.0	9.619
1046.0	9.624
1048.0	9.622
1050.0	9.629
1052.0	9.629
1054.0	9.618
1056.0	9.613
1058.0	9.607
1060.0	9.619
1062.0	9.623
1064.0	9.627
1066.0	9.628
1068.0	9.623
1070.0	9.607
1072.0	9.615
1074.0	9.621
1076.0	9.633
1078.0	9.627
1080.0	9.612
1082.0	9.616
1084.0	9.609
1086.0	9.599
1088.0	9.585
1090.0	9.570
1092.0	9.573
1094.0	9.573
1096.0	9.569
1098.0	9.579
1100.0	9.580
1102.0	9.578
1104.0	9.568
1106.0	9.556
1108.0	9.549
1110.0	9.531
1112.0	9.524
1114.0	9.525
1116.0	9.523
1118.0	9.505
1120.0	9.486
1122.0	9.454
1124.0	9.440
1126.0	9.425
1128.0	9.423
1130.0	9.417
1132.0	9.416
1134.0	9.423
1136.0	9.430
1138.0	9.428
1140.0	9.425
1142.0	9.431
1144.0	9.450
1146.0	9.473
1148.0	9.481
1150.0	9.490
1152.0	9.512
1154.0	9.532
1156.0	9.544
1158.0	9.539
1160.0	9.535
1162.0	9.523
1164.0	9.528
1166.0	9.530
1168.0	9.545
1170.0	9.534
1172.0	9.512
1174.0	9.479
1176.0	9.463
1178.0	9.461
1180.0	9.474
1182.0	9.484
1184.0	9.485
1186.0	9.477
1188.0	9.463
1190.0	9.453
1192.0	9.440
1194.0	9.449
1196.0	9.480
1198.0	9.520
1200.0	9.552
1202.0	9.554
1204.0	9.544
1206.0	9.521
1208.0	9.514
1210.0	9.508
1212.0	9.508
1214.0	9.509
1216.0	9.510
1218.0	9.513
1220.0	9.517
1222.0	9.517
1224.0	9.526
1226.0	9.525
1228.0	9.535
1230.0	9.541
1232.0	9.544
1234.0	9.550
1236.0	9.538
1238.0	9.528
1240.0	9.513
1242.0	9.512
1244.0	9.513
1246.0	9.506
1248.0	9.500
1250.0	9.491
1252.0	9.497
1254.0	9.494
1256.0	9.491
1258.0	9.486
1260.0	9.489
1262.0	9.482
1264.0	9.472
1266.0	9.462
1268.0	9.472
1270.0	9.474
1272.0	9.473
1274.0	9.468
1276.0	9.480
1278.0	9.486
1280.0	9.493
1282.0	9.480
1284.0	9.473
1286.0	9.468
1288.0	9.466
1290.0	9.470
1292.0	9.465
1294.0	9.467
1296.0	9.471
1298.0	9.466
1300.0	9.462
1302.0	9.458
1304.0	9.465
1306.0	9.475
1308.0	9.473
1310.0	9.467
1312.0	9.460
1314.0	9.457
1316.0	9.461
1318.0	9.462
1320.0	9.472
1322.0	9.470
1324.0	9.476
1326.0	9.491
1328.0	9.511
1330.0	9.519
1332.0	9.496
1334.0	9.486
1336.0	9.473
1338.0	9.490
1340.0	9.507
1342.0	9.521
1344.0	9.505
1346.0	9.472
1348.0	9.446
1350.0	9.437
1352.0	9.450
1354.0	9.461
1356.0	9.461
1358.0	9.407
1360.0	9.316
1362.0	9.227
1364.0	9.215
1366.0	9.284
1368.0	9.364
1370.0	9.417
1372.0	9.423
1374.0	9.453
1376.0	9.514
1378.0	9.613
1380.0	9.693
1382.0	9.741
1384.0	9.736
1386.0	9.707
1388.0	9.679
1390.0	9.671
1392.0	9.666
1394.0	9.636
1396.0	9.604
1398.0	9.593
1400.0	9.599
1402.0	9.595
1404.0	9.572
1406.0	9.552
1408.0	9.569
1410.0	9.615
1412.0	9.654
1414.0	9.660
1416.0	9.664
1418.0	9.706
1420.0	9.765
1422.0	9.802
1424.0	9.811
1426.0	9.809
1428.0	9.820
1430.0	9.810
1432.0	9.791
1434.0	9.787
1436.0	9.780
1438.0	9.790
1440.0	9.782
1442.0	9.783
1444.0	9.793
1446.0	9.783
1448.0	9.800
1450.0	9.796
1452.0	9.806
1454.0	9.815
1456.0	9.829
1458.0	9.832
1460.0	9.824
1462.0	9.823
1464.0	9.835
1466.0	9.819
1468.0	9.792
1470.0	9.755
1472.0	9.755
1474.0	9.766
1476.0	9.781
1478.0	9.756
1480.0	9.726
1482.0	9.714
1484.0	9.717
1486.0	9.708
1488.0	9.715
1490.0	9.707
1492.0	9.698
1494.0	9.670
1496.0	9.680
1498.0	9.673
1500.0	9.656
1502.0	9.663
1504.0	9.668
1506.0	9.659
1508.0	9.626
1510.0	9.627
1512.0	9.634
1514.0	9.629
1516.0	9.612
1518.0	9.592
1520.0	9.582
1522.0	9.569
1524.0	9.561
1526.0	9.545
1528.0	9.551
1530.0	9.541
1532.0	9.530
1534.0	9.519
1536.0	9.523
1538.0	9.521
1540.0	9.512
1542.0	9.509
1544.0	9.530
1546.0	9.527
1548.0	9.511
1550.0	9.496
1552.0	9.479
1554.0	9.482
1556.0	9.476
1558.0	9.471
1560.0	9.481
1562.0	9.458
1564.0	9.456
1566.0	9.433
1568.0	9.441
1570.0	9.447
1572.0	9.430
1574.0	9.419
1576.0	9.432
1578.0	9.434
1580.0	9.454
1582.0	9.436
1584.0	9.417
1586.0	9.400
1588.0	9.363
1590.0	9.366
1592.0	9.371
1594.0	9.367
1596.0	9.389
1598.0	9.379
1600.0	9.374
1602.0	9.374
1604.0	9.341
1606.0	9.316
1608.0	9.293
1610.0	9.238
1612.0	9.249
1614.0	9.194
1616.0	9.203
1618.0	9.176
1620.0	9.166
1622.0	9.179
1624.0	9.127
1626.0	9.118
1628.0	9.078
1630.0	9.038
1632.0	9.028
1634.0	8.951
1636.0	8.990
1638.0	8.924
1640.0	8.884
1642.0	8.817
1644.0	8.722
1646.0	8.718
1648.0	8.629
1650.0	8.250
1652.0	7.743
1654.0	7.233
1656.0	7.267
1658.0	7.291
1660.0	7.252
1662.0	6.840
1664.0	6.587
1666.0	6.499
1668.0	6.493
1670.0	6.590
1672.0	6.676
1674.0	6.977
1676.0	7.135
1678.0	7.203
1680.0	7.199
1682.0	7.076
1684.0	6.985
1686.0	7.016
1688.0	7.114
1690.0	7.151
1692.0	7.083
1694.0	7.085
1696.0	7.221
1698.0	7.045
1700.0	7.030
1702.0	6.997
1704.0	7.215
1706.0	7.107
1708.0	7.205
1710.0	7.302
1712.0	7.324
1714.0	7.232
1716.0	7.215
1718.0	7.425
1720.0	7.635
1722.0	7.690
1724.0	7.585
1726.0	7.508
1728.0	7.533
1730.0	7.734
1732.0	7.738
1734.0	7.760
1736.0	7.520
1738.0	7.464
1740.0	7.550
1742.0	7.563
1744.0	7.625
1746.0	7.283
1748.0	7.450
1750.0	7.545
1752.0	7.841
1754.0	7.689
1756.0	7.727
1758.0	7.810
1760.0	7.811
1762.0	7.686
1764.0	7.409
1766.0	7.409
1768.0	7.310
1770.0	7.110
1772.0	7.501
1774.0	7.666
1776.0	7.915
1778.0	7.731
1780.0	7.716
1782.0	7.739
1784.0	7.619
1786.0	7.671
1788.0	7.696
1790.0	7.894
1792.0	7.621
1794.0	7.705
1796.0	7.810
1798.0	7.762
1800.0	7.691
1802.0	7.458
1804.0	7.732
1806.0	7.660
1808.0	7.667
1810.0	7.539
1812.0	7.836
1814.0	7.697
1816.0	7.616
1818.0	7.314
1820.0	7.587
1822.0	7.695
1824.0	7.926
1826.0	7.709
1828.0	7.552
1830.0	7.754
1832.0	7.685
1834.0	7.535
1836.0	7.144
1838.0	7.391
1840.0	7.556
1842.0	7.747
1844.0	8.063
1846.0	8.453
1848.0	8.410
1850.0	7.834
1852.0	7.777
1854.0	7.403
1856.0	7.435
1858.0	7.373
1860.0	7.665
1862.0	7.562
1864.0	7.521
1866.0	7.443
1868.0	7.184
1870.0	7.190
1872.0	7.269
1874.0	7.751
1876.0	7.727
1878.0	8.005
1880.0	8.085
1882.0	8.167
1884.0	7.680
1886.0	7.604
1888.0	7.662
1890.0	7.980
1892.0	8.190
1894.0	7.838
1896.0	7.707
1898.0	7.616
1900.0	8.122
1902.0	8.405
1904.0	8.959
1906.0	9.259
1908.0	9.212
1910.0	8.665
1912.0	8.377
1914.0	8.551
1916.0	8.546
1918.0	8.103
1920.0	8.178
1922.0	8.234
1924.0	8.572
1926.0	7.990
1928.0	7.927
1930.0	8.002
1932.0	8.449
1934.0	8.841
1936.0	8.740
1938.0	8.497
1940.0	8.391
1942.0	8.778
1944.0	9.229
1946.0	9.286
1948.0	8.795
1950.0	8.319
1952.0	8.196
1954.0	8.289
1956.0	8.348
1958.0	8.013
1960.0	7.938
1962.0	7.966
1964.0	8.246
1966.0	8.360
1968.0	8.134
1970.0	8.045
1972.0	7.652
1974.0	8.020
1976.0	7.504
1978.0	8.055
1980.0	7.567
1982.0	7.509
1984.0	7.129
1986.0	7.505
1988.0	7.669
1990.0	7.854
1992.0	7.447
1994.0	7.975
1996.0	8.004
1998.0	8.550
2000.0	8.610
2002.0	8.343
2004.0	8.062
2006.0	7.851
2008.0	7.801
2010.0	7.858
2012.0	7.819
2014.0	7.745
2016.0	7.481
2018.0	8.001
2020.0	8.358
2022.0	7.952
2024.0	7.436
2026.0	7.036
2028.0	7.553
2030.0	7.534
2032.0	7.945
2034.0	7.949
2036.0	8.068
2038.0	7.943
2040.0	8.145
2042.0	7.617
2044.0	7.748
2046.0	7.217
2048.0	7.507
2050.0	7.080
2052.0	7.272
2054.0	7.115
2056.0	7.596
2058.0	7.365
2060.0	7.234
2062.0	6.677
2064.0	7.050
2066.0	7.558
2068.0	8.128
2070.0	8.293
2072.0	8.222
2074.0	8.080
2076.0	7.634
2078.0	7.708
2080.0	7.811
2082.0	8.723
2084.0	8.319
2086.0	8.126
2088.0	7.530
2090.0	8.043
2092.0	7.885
2094.0	7.627
2096.0	7.233
2098.0	7.103
2100.0	7.185
2102.0	6.649
2104.0	7.619
2106.0	7.412
2108.0	7.834
2110.0	7.360
2112.0	6.985
2114.0	6.596
2116.0	6.407
2118.0	6.901
2120.0	7.141
2122.0	6.136
2124.0	5.989
2126.0	6.335
2128.0	6.612
2130.0	6.165
2132.0	4.971
2134.0	4.641
2136.0	4.664
2138.0	5.196
2140.0	5.321
2142.0	5.293
2144.0	5.693
2146.0	7.180
2148.0	7.560
2150.0	7.502
2152.0	6.209
2154.0	6.984
2156.0	7.217
2158.0	7.477
2160.0	6.782
2162.0	6.903
2164.0	6.509
2166.0	6.362
2168.0	5.113
2170.0	6.043
2172.0	6.512
2174.0	7.454
2176.0	7.027
2178.0	6.883
2180.0	7.000
2182.0	6.624
2184.0	5.970
2186.0	4.939
2188.0	5.656
2190.0	6.397
2192.0	7.164
2194.0	6.225
2196.0	5.934
2198.0	6.821
2200.0	7.482
2202.0	7.097
2204.0	6.432
2206.0	7.359
2208.0	8.065
2210.0	8.431
2212.0	6.537
2214.0	6.326
2216.0	5.631
2218.0	6.415
2220.0	6.481
2222.0	6.449
2224.0	6.059
2226.0	6.704
2228.0	6.568
2230.0	6.805
2232.0	6.054
2234.0	6.114
2236.0	6.026
2238.0	6.250
2240.0	6.406
2242.0	6.803
2244.0	6.533
2246.0	6.105
2248.0	6.054
2250.0	5.926
2252.0	6.061
2254.0	5.638
2256.0	6.011
2258.0	6.239
2260.0	6.188
2262.0	5.794
2264.0	5.787
2266.0	5.950
2268.0	5.404
2270.0	5.590
2272.0	5.198
2274.0	5.225
2276.0	4.586
2278.0	4.582
2280.0	5.258
2282.0	5.434
2284.0	5.718
2286.0	5.183
2288.0	4.951
2290.0	5.007
2292.0	5.706
2294.0	7.026
2296.0	6.576
2298.0	6.042
2300.0	4.539
2302.0	4.712
2304.0	3.588
2306.0	3.852
2308.0	4.335
2310.0	5.387
2312.0	6.126
2314.0	5.437
2316.0	5.162
2318.0	5.370
2320.0	5.459
2322.0	4.688
2324.0	4.054
2326.0	3.631
2328.0	5.422
2330.0	5.069
2332.0	6.193
2334.0	5.368
2336.0	6.314
2338.0	5.532
2340.0	5.428
2342.0	5.205
2344.0	6.086
2346.0	5.800
2348.0	4.493
2350.0	4.285
2352.0	4.849
2354.0	5.184
2356.0	4.606
2358.0	5.770
2360.0	6.037
2362.0	7.469
2364.0	5.228
2366.0	4.704
2368.0	3.426
2370.0	4.732
2372.0	3.368
2374.0	3.287
2376.0	2.373
2378.0	4.892
2380.0	4.855
2382.0	5.361
2384.0	6.254
2386.0	5.045
2388.0	5.664
2390.0	4.532
2392.0	6.096
2394.0	6.517
2396.0	5.446
2398.0	4.523
2400.0	3.533
2402.0	3.905
2404.0	4.823
2406.0	5.212
2408.0	5.160
2410.0	4.484
2412.0	4.317
2414.0	5.130
2416.0	4.339
2418.0	4.126
2420.0	3.099
2422.0	5.576
2424.0	5.168
2426.0	6.810
2428.0	5.279
2430.0	4.393
2432.0	3.297
2434.0	3.848
2436.0	4.624
2438.0	6.348
2440.0	6.415
2442.0	5.625
2444.0	5.168
2446.0	3.038
2448.0	4.959
2450.0	3.921
2452.0	6.318
2454.0	3.761
2456.0	3.452
2458.0	4.092
2460.0	6.268
2462.0	3.533
2464.0	3.974
2466.0	3.094
2468.0	6.458
2470.0	4.137
2472.0	2.503
2474.0	0.287
2476.0	2.604
2478.0	5.231
2480.0	8.836
2482.0	5.917
2484.0	4.768
2486.0	5.500
2488.0	4.459
2490.0	3.153
2492.0	-3.529
2494.0	-2.394
2496.0	0.185
2498.0	1.492
2500.0	-0.172
